

List of telluric lines from UVES data  

These telluric absorption lines are measured in UVES spectra with very high S/N (approx. 1000) and high resolution (50000). It is not published yet;  please with "Hanuschik 2006 (unpublished)" quote.

Reinhard Hanuschik
European Southern Observatory
Data Management and Operations Division
Karl-Schwarzschild-Strasse 2,  D-85748 Garching bei Muenchen,  Germany.
Email: rhanusch@eso.org    Tel: +49 89 32006742    Fax: +49 89 3202362





              START      END    CENTER   INT_START   INT_END  INT_PEAK   INT_FIT      FWHM

         1 5885.8300 5886.1540 5885.9890    0.9827    0.9793    0.9552   -0.0315    0.1720
         2 5887.1260 5887.3520 5887.2320    0.9760    0.9707    0.9488   -0.0212    0.0890
         3 5891.5420 5891.7770 5891.6480    0.9624    0.9704    0.9404   -0.0285    0.1280
         4 5892.2780 5892.5290 5892.4120    0.9682    0.9624    0.9537   -0.0144    0.1030
         5 5898.0560 5898.3000 5898.1680    0.9731    0.9662    0.9486   -0.0239    0.1490
         6 5899.7650 5900.3290 5899.9880    0.9709    0.9755    0.9415   -0.0319    0.2660
         7 5901.2870 5901.6250 5901.4590    0.9798    0.9862    0.9445   -0.0334    0.1580
         8 5908.8440 5909.1840 5909.0000    0.9956    0.9896    0.9726   -0.0165    0.1590
         9 5910.1920 5910.3780 5910.2420    0.9806    0.9996    0.9746   -0.0655    0.4020
        10 5918.1970 5918.6760 5918.4350    0.9927    0.9956    0.9564   -0.0281    0.1660
        11 5918.7890 5919.2390 5919.0490    0.9805    0.9907    0.9547   -0.0342    0.1650
        12 5919.4370 5919.8590 5919.6500    0.9907    0.9954    0.9492   -0.0451    0.1400
        13 5922.3410 5922.6230 5922.5370    0.9918    0.9872    0.9702   -0.0147    0.0420
        14 5923.4550 5924.0230 5923.7530    0.9990    0.9967    0.9650   -0.0275    0.3460
        15 5924.0750 5924.5050 5924.2760    0.9826    0.9880    0.9667   -0.0218    0.1140
        16 5931.9810 5932.1840 5932.0830    0.9886    0.9885    0.9636   -0.0367    0.1590
        17 5940.2470 5940.5100 5940.4140    0.9935    0.9784    0.9707   -0.0645    0.5410
        18 5940.8820 5941.2990 5941.0890    0.9881    0.9803    0.9470   -0.0305    0.1480
        19 5941.4740 5941.7700 5941.6220    1.0036    0.9929    0.9561   -0.0843    0.3390
        20 5942.3180 5942.6940 5942.6050    0.9913    0.9848    0.9556   -0.0187    0.0350
        21 5945.9150 5946.1260 5946.0100    0.9908    0.9912    0.9691   -0.0178    0.0430
        22 6203.7030 6203.7960 6203.7620    0.9940    0.9895    0.9815   -0.0124    0.0490
        23 6276.3370 6276.7460 6276.6260    0.9962    0.9162    0.8475   -0.1549    0.1820
        24 6276.7040 6276.9570 6276.8280    0.9150    0.9409    0.8647   -0.0757    0.1350
        25 6277.1540 6277.5210 6277.3980    0.9921    0.8707    0.8013   -0.3317    0.3950
        26 6277.5210 6277.8590 6277.6060    0.8707    0.9587    0.8673   -0.1031    0.2630
        27 6277.8870 6278.2810 6278.1010    0.9742    0.9813    0.7197   -0.2780    0.1600
        28 6278.2810 6278.5070 6278.3790    0.9813    0.9967    0.9558   -0.0795    0.2360
        29 6278.7600 6278.9720 6278.8870    0.9731    0.9214    0.8354   -0.1776    0.1650
        30 6278.9580 6279.2960 6279.1050    0.8888    0.9890    0.8175   -0.1551    0.1670
        31 6279.7580 6280.0560 6279.9010    0.9799    0.9827    0.8273   -0.1721    0.1490
        32 6280.2430 6280.5880 6280.3970    0.9750    0.9927    0.8137   -0.1847    0.1460
        33 6280.8700 6281.4330 6281.1830    0.9927    0.9852    0.8475   -0.1455    0.1480
        34 6281.8090 6282.1370 6281.9610    0.9768    0.9781    0.8387   -0.1561    0.1520
        35 6282.6070 6282.8730 6282.7280    0.9507    0.9563    0.8585   -0.1281    0.1680
        36 6283.6800 6283.9050 6283.7980    0.9599    0.9567    0.8702   -0.1485    0.2050
        37 6284.4310 6284.6750 6284.5410    0.9663    0.9724    0.9290   -0.0668    0.2150
        38 6287.5870 6287.9440 6287.7570    0.9946    0.9919    0.9068   -0.0900    0.1490
        39 6289.2610 6289.5670 6289.4030    1.0014    0.9874    0.8949   -0.1094    0.1450
        40 6290.0500 6290.3780 6290.2260    0.9980    0.9883    0.8603   -0.1471    0.1570
        41 6292.0180 6292.3690 6292.1670    0.9958    0.9937    0.8637   -0.1444    0.1400
        42 6292.5310 6292.7440 6292.6440    0.9947    0.9991    0.9846   -0.0114    0.0840
        43 6292.7570 6293.0950 6292.9630    0.9981    0.9828    0.8282   -0.1747    0.1460
        44 6294.6230 6294.8730 6294.7520    0.9933    1.0118    0.9858   -0.0119    0.0900
        45 6294.8980 6295.4240 6295.1810    0.9998    0.9906    0.8472   -0.1567    0.1420
        46 6295.8160 6296.1960 6295.9650    0.9905    1.0009    0.8260   -0.1820    0.1450
        47 6298.2810 6298.6200 6298.4600    0.9908    0.9894    0.8485   -0.1563    0.1460
        48 6299.0280 6299.4220 6299.2320    0.9982    0.9992    0.8337   -0.1746    0.1520
        49 6301.7770 6302.1530 6302.0020    0.9881    0.9953    0.8588   -0.1410    0.1420
        50 6302.5290 6302.9990 6302.7680    0.9907    0.9935    0.8471   -0.1484    0.1430
        51 6305.6240 6306.0720 6305.8120    0.9979    0.9916    0.8838   -0.1148    0.1440
        52 6306.3130 6306.8300 6306.5680    1.0040    0.9897    0.8786   -0.1221    0.1430
        53 6309.6710 6310.1970 6309.8910    0.9939    1.0031    0.9187   -0.0853    0.1510
        54 6310.4220 6310.9480 6310.6430    1.0021    1.0035    0.9148   -0.0904    0.1480
        55 6313.8960 6314.1220 6314.0710    0.9958    0.9912    0.9851   -0.0094    0.1430
        56 6314.1310 6314.3940 6314.2420    0.9892    0.9935    0.9328   -0.0614    0.1370
        57 6314.8450 6315.1260 6314.9830    0.9841    1.0008    0.9337   -0.0744    0.1610
        58 6318.6360 6319.0200 6318.8540    0.9936    1.0016    0.9597   -0.0384    0.1350
        59 6319.4250 6319.7870 6319.6000    1.0064    0.9968    0.9584   -0.0396    0.1330
        60 6323.5330 6323.9720 6323.7730    1.0145    1.0009    0.9679   -0.0318    0.2080
        61 6324.2090 6324.6230 6324.4650    0.9943    1.0046    0.9767   -0.0232    0.1780
        62 6328.8030 6328.9910 6328.9020    0.9954    0.9910    0.9853   -0.0103    0.1010
        63 6332.0430 6332.2000 6332.0980    1.0009    0.9976    0.9772   -0.0178    0.0380
        64 6458.5820 6459.0320 6458.9240    1.0011    0.9896    0.9809   -0.0127    0.0310
        65 6469.8890 6470.0270 6469.9900    0.9935    0.9913    0.9806   -0.0122    0.0430
        66 6472.3940 6472.6440 6472.4840    0.9936    1.0011    0.9813   -0.0105    0.0300
        67 6473.1450 6473.2950 6473.2110    0.9899    1.0008    0.9766   -0.0176    0.0450
        68 6474.9610 6475.3120 6475.1460    0.9929    0.9923    0.9709   -0.0522    0.4230
        69 6475.6330 6475.9710 6475.8320    0.9972    0.9879    0.9588   -0.0421    0.1740
        70 6479.8360 6480.3530 6480.0810    0.9963    0.9865    0.9479   -0.0345    0.1800
        71 6480.9010 6481.0890 6481.0380    0.9763    0.9761    0.9738   -0.0047    0.0730
        72 6483.0920 6483.4370 6483.2440    0.9847    0.9929    0.9564   -0.0312    0.1630
        73 6483.6270 6484.1090 6483.8610    0.9929    0.9864    0.9672   -0.0288    0.4050
        74 6486.5880 6486.9670 6486.7790    1.0008    0.9986    0.9731   -0.0211    0.2100
        75 6488.9570 6489.2950 6488.9940    0.9938    0.9938    0.9832   -0.0132    0.0170
        76 6490.6670 6491.0050 6490.8000    0.9981    0.9905    0.9522   -0.0385    0.1670
        77 6492.7640 6493.0450 6492.9200    0.9903    0.9914    0.9551   -0.0320    0.1540
        78 6493.0450 6493.4050 6493.2500    0.9914    1.0007    0.9768   -0.0136    0.1240
        79 6495.6900 6496.0560 6495.8740    0.9796    0.9972    0.9464   -0.0413    0.1360
        80 6497.4750 6497.6830 6497.5680    0.9849    0.9965    0.9801   -0.0548    0.3840
        81 6508.5350 6508.7890 6508.5970    0.9842    0.9893    0.9728   -0.0155    0.1160
        82 6514.6080 6514.9180 6514.7330    0.9886    0.9955    0.9538   -0.0454    0.1570
        83 6516.3470 6516.7950 6516.5750    0.9899    0.9922    0.9392   -0.0487    0.2020
        84 6516.9500 6517.2600 6517.1090    0.9876    0.9889    0.9701   -0.0161    0.1300
        85 6519.2390 6519.8030 6519.4790    0.9912    0.9974    0.9680   -0.0270    0.2190
        86 6523.7810 6523.9920 6523.8720    0.9843    0.9936    0.9736   -0.0466    0.3150
        87 6532.2440 6532.5060 6532.3510    0.9896    0.9984    0.9656   -0.0276    0.1200
        88 6533.8960 6534.1590 6534.0380    0.9958    1.0023    0.9797   -0.0281    0.2180
        89 6536.5620 6536.7740 6536.5970    0.9966    0.9922    0.9876   -0.0072    0.0180
        90 6543.6270 6544.1610 6543.9120    0.9928    0.9963    0.9537   -0.0357    0.1550
        91 6547.6050 6547.9050 6547.6990    0.9845    0.9919    0.9725   -0.0266    0.3570
        92 6548.4310 6548.9380 6548.6510    0.9874    0.9861    0.9579   -0.0279    0.1950
        93 6552.5210 6552.7950 6552.6460    0.9583    0.9530    0.9267   -0.0366    0.1940
        94 6557.0800 6557.2770 6557.1520    0.8826    0.8700    0.8546   -0.0153    0.0330
        95 6571.8870 6572.2310 6572.0790    0.9741    0.9706    0.9477   -0.0345    0.2730
        96 6574.6940 6575.0900 6574.8800    0.9634    0.9617    0.9195   -0.0389    0.2380
         1 6866.9290 6867.3370 6867.2260    0.9880    0.5919    0.3578   -0.6457    0.2120
         2 6867.3230 6867.6890 6867.4810    0.5919    0.9087    0.4319   -1.1068    0.4960
         3 6867.6890 6867.9430 6867.8710    0.9087    0.7994    0.7839   -0.2252    0.2870
         4 6867.9580 6868.3520 6868.1630    0.8037    0.6277    0.1815   -0.9604    0.3520
         5 6868.3520 6868.6620 6868.5010    0.6277    0.8077    0.3803   -0.4088    0.1990
         6 6868.7890 6869.0140 6868.9330    0.6422    0.3296    0.2584   -1.4301    0.4450
         7 6868.9720 6869.1270 6869.0270    0.3317    0.4739    0.3131   -0.6760    0.3500
         8 6869.4370 6869.6900 6869.6170    0.9345    0.8370    0.8269   -0.2087    0.3370
         9 6869.6480 6870.2120 6869.9240    0.8302    0.9120    0.0528   -0.8370    0.2280
        10 6870.4780 6870.7130 6870.6760    0.9521    0.8897    0.8877   -0.1330    0.4260
        11 6870.6970 6871.1040 6870.9390    0.9042    0.7022    0.2610   -0.6405    0.2110
        12 6871.1040 6871.4640 6871.2650    0.7022    0.8618    0.2092   -0.6863    0.2140
        13 6871.6840 6871.9650 6871.8740    0.9653    0.9249    0.9133   -0.0225    0.0380
        14 6871.9650 6872.4350 6872.2320    0.9249    0.8855    0.2325   -0.6996    0.2000
        15 6872.4820 6873.0920 6872.8280    0.8909    0.9259    0.1972   -0.7054    0.2010
        16 6873.4680 6873.9530 6873.7810    0.9416    0.8405    0.2447   -0.6992    0.1990
        17 6874.3330 6874.9700 6874.6390    0.9322    0.9511    0.2103   -0.7250    0.2040
        18 6875.2110 6875.8310 6875.5790    0.9550    0.9181    0.2611   -0.6835    0.1980
        19 6876.3300 6877.0360 6876.7000    0.9638    0.9670    0.2495   -0.7018    0.2020
        20 6877.3120 6877.8620 6877.6220    0.9765    0.9589    0.3141   -0.6552    0.1890
        21 6878.6940 6879.3330 6879.0270    0.9809    0.9733    0.3375   -0.6353    0.1870
        22 6879.6710 6880.1220 6879.9130    0.9732    0.9748    0.5139   -0.4904    0.1730
        23 6883.5620 6883.9530 6883.8180    0.9705    0.8558    0.3761   -0.6001    0.1800
        24 6885.4550 6886.0090 6885.7430    0.9857    0.9237    0.3254   -0.6372    0.1860
        25 6886.4130 6887.0420 6886.7300    0.9418    0.9405    0.2576   -0.6887    0.1990
        26 6888.5380 6889.2830 6888.9340    0.9394    0.9594    0.2604   -0.6865    0.1990
        27 6889.5240 6890.2910 6889.8880    0.9676    0.9829    0.2203   -0.7246    0.2080
        28 6892.0430 6892.6690 6892.3570    0.9771    0.9570    0.2409   -0.7205    0.2080
        29 6892.9070 6893.6210 6893.2950    0.9575    0.9587    0.2275   -0.7295    0.2190
        30 6895.6040 6896.4500 6896.0210    0.9798    0.9660    0.2566   -0.7053    0.2010
        31 6896.5060 6897.2950 6896.9470    0.9752    0.9774    0.2375   -0.7105    0.2100
        32 6899.4920 6900.3220 6899.9360    0.9911    0.9913    0.2921   -0.6751    0.2060
        33 6900.4310 6901.3550 6900.8520    0.9824    1.0068    0.2795   -0.6967    0.2060
        34 6903.6780 6904.3840 6904.1010    0.9980    0.9543    0.3455   -0.6421    0.1920
        35 6904.6080 6905.3660 6905.0070    0.9965    0.9864    0.3241   -0.6523    0.1960
        36 6908.1120 6908.7700 6908.5150    1.0001    0.9762    0.4142   -0.5892    0.1840
        37 6909.0890 6909.7080 6909.4090    1.0011    0.9972    0.4029   -0.5988    0.1920
        38 6912.8770 6913.4410 6913.1820    1.0062    0.9960    0.5000   -0.5088    0.1730
        39 6913.6520 6914.3800 6914.0690    0.9889    0.9942    0.4835   -0.5231    0.1750
        40 6917.5060 6918.3580 6918.1050    1.0089    0.9729    0.5807   -0.4437    0.1650
        41 6918.6680 6919.3920 6918.9880    1.0126    1.0039    0.5726   -0.4475    0.1640
        42 6923.0130 6923.5770 6923.2880    0.9787    1.0042    0.6388   -0.3578    0.1750
        43 6923.8580 6924.4790 6924.1570    0.9916    0.9955    0.6747   -0.3387    0.1630
        44 6928.4150 6928.9640 6928.7160    0.9855    1.0118    0.7773   -0.2364    0.1520
        45 6928.9640 6930.1850 6929.5830    1.0118    0.9964    0.7681   -0.2305    0.1450
        46 6933.6640 6933.9340 6933.8010    0.9678    0.9919    0.9447   -0.0451    0.1280
        47 6934.2280 6934.6500 6934.4040    0.9834    0.9976    0.8631   -0.1345    0.1630
        48 6935.1200 6935.4480 6935.2650    0.9822    0.9973    0.8600   -0.1486    0.1650
        49 6935.5900 6935.8720 6935.7560    1.0082    0.9975    0.9759   -0.0922    0.5030
        50 6937.5480 6937.8720 6937.6740    0.9944    0.9939    0.9095   -0.0862    0.1450
        51 6939.3800 6939.8730 6939.6250    1.0017    1.0212    0.9329   -0.0621    0.2190
        52 6939.9290 6940.5770 6940.2490    0.9995    1.0047    0.9064   -0.1332    0.4620
        53 6941.0000 6941.3800 6941.2070    0.9817    0.9895    0.8913   -0.1002    0.1510
        54 6941.9520 6942.4940 6942.1480    0.9861    0.9974    0.9146   -0.0610    0.1270
        55 6943.5300 6943.9740 6943.7970    0.9982    0.9916    0.9027   -0.0970    0.1820
        56 6946.4390 6946.7020 6946.6230    0.9903    1.0209    0.9573   -0.0342    0.0350
        57 6947.1950 6947.7540 6947.5090    1.0034    0.9862    0.8706   -0.1193    0.2430
        58 6948.8160 6949.2670 6949.0300    0.9980    1.0023    0.9433   -0.0659    0.2790
        59 6950.4880 6950.9190 6950.7200    0.9976    0.9984    0.9642   -0.0445    0.2900
        60 6953.3230 6954.1040 6953.6920    1.0063    1.0172    0.9517   -0.1541    1.2480
        61 6956.2180 6956.6830 6956.4170    0.9916    1.0029    0.8610   -0.1465    0.2210
        62 6959.2820 6959.6830 6959.4220    0.9718    1.0058    0.9224   -0.0787    0.2430
        63 6961.0220 6961.4220 6961.2290    1.0017    0.9931    0.8984   -0.1062    0.2000
        64 6986.3930 6986.7170 6986.5650    1.0338    1.0285    0.9323   -0.2737    0.4320
        65 6988.7460 6989.2100 6988.9600    1.0210    1.0148    0.9150   -0.0898    0.1660
        66 6993.9400 6994.2700 6994.0570    1.0072    1.0106    0.9790   -0.0508    0.2250
        67 6998.5720 6999.1350 6998.9550    1.0005    1.0063    0.9297   -0.0560    0.1480
        68 7004.5690 7004.8440 7004.7200    1.0057    0.9808    0.9329   -0.0773    0.1670
        69 7011.0690 7011.4690 7011.2940    1.0088    1.0014    0.9467   -0.0405    0.0340
        70 7016.0850 7016.6020 7016.4320    1.0110    0.9824    0.9087   -0.0764   -0.0764
        71 7023.2390 7023.7180 7023.4730    0.9966    0.9948    0.9217   -0.0718    0.1920
        72 7027.1320 7027.7730 7027.4700    0.9839    0.9706    0.9162   -0.0677    0.1500
        73 7039.6050 7039.9580 7039.7890    0.9937    0.9859    0.9103   -0.0590    0.1370
        74 7050.6570 7051.0510 7050.8500    0.9998    1.0103    0.9587   -0.0388    0.2140
        75 7052.6040 7052.9210 7052.6940    0.9945    0.9975    0.9431   -0.0814    0.0140
        76 7056.7670 7057.1260 7056.9730    1.0294    1.0087    0.9740   -0.0425    0.2810
        77 7082.8890 7083.1940 7083.0430    1.0002    1.0164    0.9565   -0.0341    0.0850
        78 7147.4910 7147.7540 7147.6620    0.9961    0.9993    0.9459   -0.0477    0.0380
        79 7167.0670 7167.4800 7167.3560    0.9781    0.9879    0.9179   -0.0581    0.1470
        80 7167.6090 7168.2550 7167.8830    0.9884    0.9933    0.7856   -0.1796    0.1770
        81 7169.7280 7170.2700 7170.0640    0.9775    0.9795    0.9329   -0.0625    0.4280
        82 7170.2700 7170.8900 7170.5490    0.9795    0.9576    0.8812   -0.0932    0.1630
        83 7172.3940 7173.0980 7172.7440    0.9971    0.9827    0.8506   -0.1295    0.3050
        84 7173.1540 7173.6330 7173.4030    0.9762    0.9374    0.8128   -0.1590    0.1940
        85 7173.6330 7173.9150 7173.7490    0.9374    1.0110    0.8815   -0.3682    0.4490
        86 7173.9150 7174.2530 7174.1340    1.0110    0.9538    0.8996   -0.0750    0.2380
        87 7175.4930 7176.5350 7176.0940    0.9844    1.0023    0.8670   -0.1023    0.3190
        88 7176.7040 7177.1550 7177.0920    0.9974    0.8909    0.8747   -0.1136    0.2180
        89 7177.1830 7177.5780 7177.3590    0.9129    0.8441    0.7469   -0.1484    0.1310
        90 7177.5210 7177.8030 7177.5850    0.8899    0.9720    0.8441   -0.1594    0.2230
        91 7178.2010 7178.6890 7178.4130    0.9880    0.9861    0.9001   -0.0876    0.1710
        92 7179.0860 7179.4520 7179.2710    1.0038    1.0036    0.9416   -0.0505    0.1830
        93 7181.1620 7181.7110 7181.5370    1.0005    0.8474    0.6847   -0.3055    0.2390
        94 7181.6500 7181.8940 7181.6850    0.8507    0.9815    0.8445   -0.1551    0.2610
        95 7184.1100 7184.7320 7184.5010    0.9837    0.9172    0.4719   -0.4825    0.2170
        96 7185.8150 7186.1820 7186.1300    0.9796    0.8113    0.7807   -0.1850    0.1880
        97 7186.1820 7186.5480 7186.3510    0.8113    0.9461    0.6923   -0.2188    0.1740
        98 7186.7590 7187.1680 7187.0070    0.9888    0.9363    0.8539   -0.1533    0.2850
        99 7187.1680 7187.5900 7187.3830    0.9363    0.9427    0.5795   -0.3926    0.1780
       100 7191.0840 7191.7040 7191.4790    1.0022    0.9248    0.5501   -0.4250    0.2060
       101 7191.6560 7192.0180 7191.8160    0.8994    0.9871    0.8499   -0.1531    0.3100
       102 7192.2970 7192.5600 7192.4530    0.9758    0.9680    0.9099   -0.0766    0.1600
       103 7193.2340 7193.6780 7193.5640    1.0141    0.8074    0.7655   -0.2474    0.2800
       104 7193.5950 7193.9900 7193.6890    0.7896    0.9824    0.7561   -0.2364    0.3250
       105 7194.8120 7195.3210 7195.0310    0.9808    0.9909    0.8650   -0.1205    0.1930
       106 7195.5510 7195.8960 7195.7930    1.0034    0.9755    0.9316   -0.0677    0.2320
       107 7196.8830 7197.5890 7197.2400    0.9921    0.9866    0.8903   -0.0847    0.2090
       108 7197.6320 7198.0080 7197.8390    0.9926    0.9737    0.8857   -0.1031    0.1810
       109 7198.2150 7198.6090 7198.4300    0.9663    0.9627    0.8479   -0.1366    0.1580
       110 7200.1870 7200.7130 7200.4880    0.9762    0.9770    0.7237   -0.2662    0.2750
       111 7200.7130 7201.5770 7201.1820    0.9770    0.9796    0.5800   -0.3839    0.1920
       112 7203.5970 7203.9990 7203.8420    1.0036    0.9677    0.9321   -0.0759    0.3060
       113 7203.9990 7204.5270 7204.2860    0.9677    0.9724    0.6402   -0.3397    0.1950
       114 7206.1330 7206.8940 7206.4100    0.9865    0.9883    0.5658   -0.4157    0.2050
       115 7209.3090 7209.7780 7209.5060    0.9646    1.0000    0.8254   -0.1568    0.1630
       116 7216.2410 7216.6540 7216.5070    1.0001    0.9643    0.8584   -0.1371    0.1970
       117 7223.1260 7223.9150 7223.6060    0.9703    1.0008    0.7979   -0.1784    0.1930
       118 7227.2110 7227.9720 7227.4760    0.9933    0.9769    0.8453   -0.1439    0.2200
       119 7231.8940 7232.4440 7232.2220    1.0101    1.0094    0.8770   -0.1093    0.1980
       120 7232.5350 7233.1760 7232.8750    0.9684    1.0170    0.6525   -0.3315    0.2150
       121 7234.1570 7234.4860 7234.3890    0.9798    0.9243    0.8847   -0.1131    0.2230
       122 7234.4860 7235.0140 7234.7130    0.9243    0.9859    0.5630   -0.4150    0.2270
       123 7235.8300 7236.4070 7236.1100    1.0031    0.9708    0.8090   -0.1805    0.2020
       124 7239.6760 7239.9720 7239.8330    1.0033    0.9994    0.9161   -0.0706    0.1610
       125 7240.3240 7240.7460 7240.6550    1.0127    0.7321    0.7013   -0.3379    0.3120
       126 7240.6900 7240.9720 7240.7300    0.7268    0.9566    0.7185   -0.4264    0.4480
       127 7243.2830 7243.5620 7243.4970    1.0099    0.8434    0.8310   -0.2764    0.3790
       128 7243.5460 7243.8420 7243.6860    0.8532    0.9542    0.6288   -0.3790    0.2190
       129 7245.3870 7245.8310 7245.6610    1.0220    0.9960    0.8256   -0.1828    0.1960
       130 7246.9480 7247.5400 7247.1930    0.9926    1.0115    0.9076   -0.0641    0.2690
       131 7248.6470 7249.2100 7248.8980    0.9931    1.0020    0.9310   -0.0607    0.1650
       132 7249.9430 7250.5060 7250.1910    0.9752    1.0045    0.9000   -0.0759    0.1570
       133 7251.9150 7252.7040 7252.3620    0.9866    0.9921    0.6930   -0.2973    0.1920
       134 7252.7040 7253.0610 7252.8570    0.9921    0.9737    0.8934   -0.0844    0.1870
       135 7253.0420 7253.4370 7253.2170    0.9731    0.9812    0.8195   -0.1687    0.1900
       136 7253.4370 7253.9440 7253.6960    0.9812    0.9872    0.7499   -0.2368    0.1710
       137 7256.8730 7257.2320 7257.0640    1.0024    0.9803    0.9407   -0.1287    0.4530
       138 7257.2320 7257.6120 7257.3630    0.9803    1.0084    0.8713   -0.1148    0.1720
       139 7257.6120 7258.2250 7257.9190    1.0084    1.0044    0.8687   -0.1245    0.2410
       140 7258.4160 7258.9010 7258.5690    1.0121    1.0025    0.9553   -0.0273    0.1410
       141 7260.4820 7260.8820 7260.7240    0.9867    0.9777    0.9295   -0.0744    0.1870
       142 7261.1400 7261.7740 7261.4310    1.0108    0.9702    0.9381   -0.0385    0.2330
       143 7261.8680 7262.2440 7262.0140    0.9892    1.0162    0.8972   -0.0918    0.1260
       144 7262.7840 7263.2060 7262.9530    0.9873    1.0010    0.9121   -0.0781    0.1790
       145 7264.2860 7264.8500 7264.5430    0.9773    1.0015    0.8247   -0.1684    0.3030
       146 7264.8500 7265.2020 7265.0320    1.0015    0.9927    0.9686   -0.0258    0.1060
       147 7265.2020 7265.7890 7265.5730    0.9927    0.9657    0.6189   -0.3730    0.2060
       148 7269.4690 7269.9600 7269.7300    0.9980    0.9840    0.9071   -0.0615    0.1980
       149 7269.9600 7270.3470 7270.1190    0.9840    1.0014    0.9343   -0.0582    0.2140
       150 7272.3940 7273.4080 7272.9480    0.9992    0.9946    0.6300   -0.3591    0.2160
       151 7274.9580 7275.6050 7275.3880    1.0076    0.9572    0.7791   -0.2079    0.1950
       152 7275.6620 7276.0560 7275.7820    1.0000    0.9595    0.9421   -0.0508    0.1210
       153 7276.0560 7276.9580 7276.8420    0.9595    0.9495    0.8913   -0.0361    0.1320
       154 7276.9580 7277.6900 7277.3660    0.9495    0.9482    0.6505   -0.2854    0.1840
       155 7277.8040 7278.4760 7278.0740    0.9481    0.9438    0.8595   -0.0733    0.1800
       156 7278.4450 7279.2080 7278.7730    0.9319    0.9587    0.8831   -0.0482    0.2630
       157 7281.9860 7282.5660 7282.2440    0.9799    0.9871    0.9011   -0.0662    0.1620
       158 7283.0060 7283.3590 7283.1710    0.9833    1.0061    0.9460   -0.1480    0.5400
       159 7287.5620 7287.1110 7287.3670    0.9895    0.9851    0.7842   -0.2066    0.1840
       160 7287.8580 7288.2810 7288.0910    0.9959    0.9865    0.8661   -0.1126    0.1690
       161 7290.1120 7290.6480 7290.3960    0.9860    0.9948    0.6532   -0.3427    0.2180
       162 7290.8310 7291.2680 7291.0770    0.9994    1.0043    0.9119   -0.0635    0.1780
       163 7291.9850 7292.3460 7292.1370    0.9930    1.0005    0.9060   -0.0889    0.1920
       164 7292.4940 7292.8230 7292.6700    1.0116    0.9754    0.9209   -0.0968    0.2980
       165 7293.2170 7293.5130 7293.3610    0.9907    0.9713    0.9434   -0.0460    0.1480
       166 7294.2200 7294.5000 7294.3820    0.9973    0.9886    0.9503   -0.0298    0.0840
       167 7294.6970 7295.3050 7294.9980    1.0113    0.9870    0.9007   -0.0849    0.2070
       168 7295.4530 7295.7980 7295.6060    1.0063    1.0005    0.9664   -0.0449    0.2120
       169 7296.0770 7296.5210 7296.2940    1.0129    1.0022    0.9489   -0.0470    0.0230
       170 7297.9710 7298.3090 7298.0760    0.9898    1.0043    0.9388   -0.0496    0.0360
       171 7299.5480 7300.0740 7299.8920    0.9563    1.0057    0.8969   -0.0698    0.1090
       172 7301.9530 7302.2720 7302.0880    0.9891    0.9960    0.9372   -0.0947    0.2850
       173 7302.2910 7302.8540 7302.5630    0.9831    1.0019    0.9524   -0.0229    0.0820
       174 7302.9300 7303.4180 7303.1890    0.9834    0.9861    0.7874   -0.1889    0.2080
       175 7303.8930 7304.4850 7304.1600    0.9797    0.9921    0.7467   -0.2233    0.2020
       176 7308.5000 7308.9650 7308.7350    0.9937    1.0182    0.9248   -0.0848    0.2190
       177 7309.2180 7309.8100 7309.5010    0.9880    1.0329    0.8409   -0.1690    0.2140
       178 7312.3140 7312.8070 7312.5880    1.0188    1.0089    0.9118   -0.0904    0.1590
       179 7315.2490 7315.7420 7315.4900    1.0057    1.0263    0.9369   -0.0747    0.2110
       180 7317.0160 7317.6350 7317.2670    1.0195    1.0049    0.9073   -0.1070    0.1850
       181 7317.7130 7318.3840 7318.3550    1.0322    0.9754    0.9578   -0.0342    0.0760
       182 7318.3840 7318.9010 7318.6710    0.9754    0.9971    0.8687   -0.1206    0.1650
       183 7320.6310 7321.2000 7320.8400    1.0308    1.0441    0.9435   -0.0562    0.2330
       184 7323.6890 7324.3660 7323.9380    0.9940    1.0242    0.9654   -0.0591    0.2160
       185 7326.9570 7327.1540 7327.0980    1.0188    1.0067    0.9663   -0.0623    0.1170
       186 7327.0140 7327.4650 7327.3510    1.0018    1.0297    0.9419   -0.0534    0.0750
       187 7330.4900 7331.0090 7330.8240    1.0495    1.0083    0.9346   -0.0798    0.1670
       188 7333.4970 7333.9400 7333.6670    1.0188    1.0181    0.8902   -0.1046    0.1490
       189 7334.4830 7334.7790 7334.6340    1.0055    1.0270    0.9860   -0.0313    0.1650
       190 7335.1070 7335.5350 7335.3260    0.9998    1.0264    0.9431   -0.0725    0.2080
       191 7341.9340 7342.2530 7342.1380    1.0085    1.0147    0.9647   -0.0335    0.0550
       192 7343.7880 7344.1250 7343.9400    1.0221    0.9890    0.9595   -0.0599    0.1740
       193 7349.0070 7349.6200 7349.4540    0.9911    1.0173    0.9339   -0.0343    0.1040
       194 7358.7720 7359.0820 7358.8320    0.9878    1.0118    0.9565   -0.0476    0.1300
       195 7360.2440 7360.6830 7360.3350    0.9865    1.0016    0.9469   -0.0387    0.0650
       196 7363.4920 7363.9430 7363.7520    1.0101    1.0212    0.9515   -0.0778    0.3460
       197 7365.4640 7365.9430 7365.7150    1.0255    1.0089    0.9703   -0.1026    0.5390
       198 7368.2920 7368.7810 7368.4460    0.9944    0.9980    0.9384   -0.0416    0.1210
       199 7368.9640 7369.3910 7369.1560    1.0045    1.0463    0.9555   -0.1528    0.4250
       200 7593.5550 7593.8300 7593.7080    0.7790    0.5738    0.3960   -1.3577    0.4600
       201 7593.8300 7594.1470 7593.9450    0.5738    0.8445    0.3808   -0.6936    0.3090
       202 7594.1680 7594.7170 7594.4820    0.8388    0.8330    0.2537   -0.5816    0.2060
       203 7594.8860 7595.0130 7594.9840    0.5484    0.3452    0.3295   -0.9061    0.3420
       204 7595.0130 7595.3940 7595.2040    0.3452    0.5295    0.0972   -0.4098    0.2160
       205 7595.4990 7595.9850 7595.7390    0.6642    0.6219    0.2562   -0.4387    0.1980
       206 7595.9430 7596.3870 7596.2420    0.6425    0.1701    0.0525   -0.9217    0.4740
       207 7596.3230 7596.8310 7596.4190    0.1706    0.7737    0.1205   -0.6888    0.3500
       208 7597.8450 7596.9150 7597.4090    0.7450    0.7235    0.0071   -0.7730    0.4280
       209 7598.0990 7597.8030 7597.9170    0.6868    0.7438    0.6590   -0.0371    0.0410
       210 7598.2250 7599.2400 7598.7430    0.7085    0.6060    0.0029   -0.9815    0.7270
       211 7599.3550 7599.6140 7599.4790    0.6705    0.6528    0.6226   -0.0396    0.1630
       212 7599.6140 7600.2010 7600.0630    0.6528    0.0751    0.0075   -0.7997    0.5420
       213 7600.2240 7600.8580 7600.4150    0.0843    0.5726    0.0040   -1.4947    1.0410
       214 7600.8820 7601.2340 7601.1780    0.6099    0.5645    0.5448   -0.0723    0.2530
       215 7601.2340 7601.9150 7601.6780    0.5645    0.2254    0.0099   -0.7957    0.6290
       216 7601.8680 7602.6890 7602.2890    0.1701    0.4641    0.0014   -0.3453    0.4290
       217 7603.0420 7603.8400 7603.5170    0.4866    0.3441    0.0054   -0.6193    0.5900
       218 7603.8400 7604.7790 7604.3960    0.3441    0.3955    0.0053   -0.4055    0.4820
       219 7605.2020 7605.9530 7605.5910    0.3804    0.4055    0.0059   -0.6645    0.6330
       220 7606.0340 7606.2920 7606.2190    0.4613    0.3983    0.3509   -0.1211    0.1780
       221 7606.2920 7607.1450 7606.7220    0.3983    0.4323   -0.0032   -0.7264    0.7180
       222 7607.1450 7607.4800 7607.3550    0.4323    0.4415    0.3954   -0.0568    0.1300
       223 7607.4800 7608.2810 7607.8870    0.4415    0.4595    0.0023   -0.8681    0.7370
       224 7608.2810 7608.6430 7608.5280    0.4595    0.5460    0.4378   -0.0839    0.1150
       225 7608.6430 7609.6240 7609.2700    0.5460    0.3489   -0.0024   -0.6525    0.6250
       226 7609.8820 7610.8120 7610.4080    0.4714    0.5404    0.0032   -0.5715    0.4880
       227 7611.4070 7612.4780 7612.0350    0.6782    0.5279    0.0099   -0.7451    0.6050
       228 7612.5620 7613.7180 7613.1490    0.5512    0.7308    0.0050   -0.6784    0.4480
       229 7613.8310 7614.2530 7614.0000    0.8076    0.8601    0.7627   -0.0741    0.1510
       230 7614.2530 7615.6340 7615.0280    0.8601    0.7690    0.0116   -0.8140    0.4780
       231 7615.6340 7616.7890 7616.1110    0.7690    0.9223    0.0321   -0.8182    0.3730
       232 7619.5130 7619.8180 7619.6900    0.9635    0.9421    0.8625   -0.1194    0.1970
       233 7619.8180 7620.2460 7620.0870    0.9421    0.8890    0.8460   -0.0975    0.3190
       234 7620.2460 7621.5590 7620.9780    0.8890    0.8203    0.0109   -0.8681    0.5040
       235 7621.5590 7622.0780 7621.7690    0.8203    0.8960    0.7745   -0.1113    0.1990
       236 7622.2610 7623.9090 7623.2740    0.8935    0.6848    0.0046   -0.8426    0.6090
       237 7623.9220 7625.0380 7624.4710    0.6788    0.7545    0.0010   -0.8524    0.6240
       238 7625.1780 7625.4370 7625.3180    0.7842    0.7851    0.7242   -0.1798    0.3230
       239 7626.6190 7626.3230 7626.5930    0.7953    0.5649    0.5604   -0.4627    0.5190
       240 7626.6460 7627.4210 7627.0390    0.5565    0.4918    0.0023   -1.0634    0.7480
       241 7627.7730 7628.7740 7628.1900    0.5136    0.6893    0.0034   -0.8716    0.7000
       242 7628.9290 7629.2950 7629.0620    0.7806    0.8216    0.6751   -0.1546    0.2040
       243 7630.0980 7630.3240 7630.2390    0.8007    0.7051    0.6399   -0.3233    0.2650
       244 7630.3940 7631.4930 7631.0010    0.7018    0.5413    0.0005   -0.8014    0.6470
       245 7631.6890 7632.6090 7632.1270    0.5051    0.6190    0.0002   -1.0141    0.8190
       246 7632.8890 7633.1680 7633.0090    0.7736    0.7923    0.6739   -0.2561    0.2940
       247 7633.8580 7634.4010 7634.1390    0.8661    0.8266    0.6884   -0.1611    0.2120
       248 7634.6310 7635.6010 7635.1710    0.6850    0.5151    0.0033   -0.8491    0.6560
       249 7635.6010 7636.8330 7636.2820    0.5151    0.6894   -0.0035   -0.6637    0.5370
       250 7636.9980 7637.3750 7637.1430    0.7559    0.8393    0.6856   -0.1759    0.2570
       251 7638.1020 7638.4400 7638.2890    0.9039    0.8989    0.7340   -0.1793    0.1820
       252 7638.7970 7639.9800 7639.5560    0.8293    0.5742   -0.0035   -0.8649    0.6140
       253 7639.9800 7641.1830 7640.6580    0.5742    0.7108    0.0014   -0.6922    0.5180
       254 7641.2760 7641.7460 7641.4340    0.7580    0.8321    0.7204   -0.1350    0.3910
       255 7642.4790 7642.7980 7642.6620    0.9434    0.8919    0.7965   -0.4261    0.4710
       256 7643.4920 7644.6330 7644.1710    0.8373    0.6561    0.0077   -0.8126    0.5540
       257 7644.6330 7645.7530 7645.2690    0.6561    0.7534   -0.0007   -0.7201    0.4780
       258 7645.9270 7646.2320 7646.0620    0.8306    0.8731    0.7813   -0.3586    0.5660
       259 7647.0000 7647.3590 7647.1690    0.9212    0.9388    0.8313   -0.0967    0.1550
       260 7648.6480 7649.4300 7649.0110    0.6809    0.7004    0.0085   -0.7823    0.4150
       261 7649.6370 7650.4820 7650.1030    0.6889    0.7024    0.0101   -0.7666    0.4120
       262 7651.7740 7652.0560 7651.9450    0.9418    0.9574    0.8733   -0.0708    0.1450
       263 7653.7230 7654.5910 7654.0700    0.7813    0.8438    0.0170   -0.7817    0.3570
       264 7654.5910 7655.6250 7655.1520    0.8438    0.8693    0.0257   -0.8228    0.3670
       265 7658.9530 7659.7790 7659.3520    0.8620    0.8737    0.0604   -0.7963    0.3060
       266 7659.8560 7660.8380 7660.4290    0.8574    0.8854    0.0464   -0.7985    0.3090
       267 7664.4500 7665.2390 7664.8550    0.9408    0.8920    0.1300   -0.7604    0.2570
       268 7665.4640 7666.2250 7665.9250    0.9222    0.8793    0.1044   -0.7839    0.2620
       269 7670.0930 7671.0700 7670.5860    0.9466    0.9682    0.2442   -0.6911    0.2280
       270 7671.0700 7672.3830 7671.6490    0.9682    0.9400    0.2386   -0.7076    0.2380
       271 7676.2240 7676.8720 7676.5430    0.9766    0.9489    0.3963   -0.5708    0.2020
       272 7677.1680 7677.9990 7677.5960    0.9853    0.9625    0.3729   -0.5778    0.2000
       273 7682.4120 7683.1030 7682.7330    0.9644    0.9788    0.5393   -0.4405    0.1850
       274 7683.3650 7684.0230 7683.7720    1.0023    0.9796    0.5428   -0.4549    0.1940
       275 7688.8910 7689.3230 7689.1560    1.0099    0.9769    0.6820   -0.3353    0.1760
       276 7689.9800 7690.4310 7690.1920    0.9913    0.9967    0.7057   -0.3089    0.1700
       277 7695.5210 7695.9010 7695.8180    0.9788    0.8587    0.8018   -0.1830    0.1680
       278 7696.6190 7697.2110 7696.8560    1.0079    0.9910    0.7740   -0.1886    0.1850
       279 7702.4790 7703.0650 7702.6880    1.0052    1.0058    0.9232   -0.0986    0.1900
       280 7703.4640 7703.9340 7703.7540    0.9835    1.0145    0.8987   -0.0933    0.1300
       281 7709.6760 7710.0890 7709.8710    1.0092    1.0096    0.9572   -0.0453    0.1820
       282 7725.5310 7725.8120 7725.7160    0.9987    0.9856    0.9604   -0.0607    0.2690
       283 7893.3020 7893.7880 7893.5340    1.0017    1.0144    0.9517   -0.0524    0.2450
       284 7895.7740 7896.2390 7896.0210    1.0110    1.0345    0.9350   -0.0735    0.1620
       285 7901.4220 7902.0560 7901.7950    1.0326    1.0139    0.9433   -0.1076    0.4080
       286 7910.5800 7910.9160 7910.6940    0.9963    1.0175    0.9439   -0.0667    0.1010
       287 7924.4740 7924.8960 7924.6290    1.0162    0.9848    0.9498   -0.0500    0.1740
       288 7949.6800 7950.3000 7950.0120    1.0234    1.0190    0.9584   -0.0558    0.3250
       289 7958.3840 7958.7980 7958.4850    0.9796    1.0211    0.9222   -0.0767    0.2450
       290 7962.6190 7963.4080 7962.9640    0.9968    0.9747    0.9268   -0.0544    0.2350
       291 7990.4690 7991.1070 7990.7780    1.0820    1.0441    0.9553   -0.2639    0.7880
       292 8007.0420 8008.0230 8007.5070    0.9763    0.9863    0.9285   -0.0467    0.4940
       293 8028.3940 8028.8730 8028.5620    1.0280    1.0142    0.9454   -0.0498    0.2060
       294 8035.6670 8035.9950 8035.9250    0.9618    0.9754    0.9332   -0.0380    0.1030
       295 8045.1820 8046.3450 8045.4510    0.9993    1.0191    0.9203   -0.0430    0.2900
       296 8051.8680 8052.4080 8052.0900    0.9735    0.9645    0.9222   -0.0655    0.0250
       297 8056.6020 8057.1450 8056.9090    0.9821    0.9519    0.9310   -0.0506    0.0870
       298 8129.7600 8130.1410 8130.0080    0.9616    0.9554    0.8985   -0.0572    0.1280
       299 8130.1410 8130.5770 8130.4500    0.9554    0.9652    0.9016   -0.0548    0.1630
       300 8133.3820 8133.9570 8133.7470    0.9897    0.9866    0.7885   -0.1827    0.2050
       301 8134.7460 8135.4850 8135.0410    0.9601    0.9410    0.7691   -0.1888    0.2040
       302 8140.2440 8141.0890 8140.6740    1.0040    0.9668    0.8016   -0.1734    0.2570
       303 8141.5580 8142.1410 8141.9150    0.9865    0.9280    0.7533   -0.2139    0.1850
       304 8143.3860 8143.9780 8143.7380    1.0469    1.0072    0.8656   -0.1403    0.2520
       305 8145.9010 8146.4080 8146.1920    1.0292    1.0011    0.8846   -0.1389    0.2720
       306 8146.6620 8147.4860 8147.1620    1.0037    1.0030    0.8259   -0.1342    0.2240
       307 8148.0990 8148.6900 8148.3660    0.9106    0.9566    0.7604   -0.1609    0.1800
       308 8149.4510 8149.9580 8149.6900    0.9613    0.9037    0.7894   -0.1161    0.2030
       309 8152.1260 8152.8070 8152.4910    0.9971    1.0089    0.7799   -0.1943    0.2660
       310 8153.3240 8153.8640 8153.6900    0.9503    0.9624    0.8023   -0.1382    0.1710
       311 8154.1460 8155.0610 8154.6320    0.9810    0.9778    0.6560   -0.3055    0.2440
       312 8157.5320 8158.2810 8157.9870    1.0472    0.9755    0.6675   -0.3447    0.2390
       313 8160.9570 8161.6890 8161.4190    0.9646    1.0107    0.5663   -0.4140    0.2070
       314 8161.6890 8162.1120 8161.9670    1.0107    0.8974    0.7144   -0.2395    0.2300
       315 8162.1120 8162.6470 8162.3240    0.8974    0.9351    0.5999   -0.3328    0.2290
       316 8164.0000 8164.8450 8164.5080    0.9662    0.9822    0.4427   -0.4737    0.2360
       317 8163.9880 8164.7820 8164.5080    0.9662    0.9123    0.4427   -0.4685    0.2320
       318 8168.5060 8169.1470 8168.7930    0.9433    0.9449    0.7178   -0.2047    0.2070
       319 8169.1470 8169.6050 8169.3680    0.9449    0.9439    0.7799   -0.1661    0.2070
       320 8169.6050 8170.3070 8169.9650    0.9439    0.9193    0.4928   -0.4484    0.2140
       321 8171.8640 8172.4740 8172.2170    0.9931    0.9852    0.8913   -0.1029    0.2860
       322 8172.9010 8173.4510 8173.1080    1.0134    1.0112    0.8906   -0.0690    0.0260
       323 8175.3430 8175.5780 8175.4640    0.9994    1.0042    0.9171   -0.0754    0.0760
       324 8176.6320 8177.2380 8176.9610    0.9694    0.9441    0.3973   -0.5575    0.2450
       325 8177.6330 8178.2810 8177.9070    0.9155    0.9716    0.7207   -0.2192    0.2460
       326 8178.2390 8178.5910 8178.4540    0.9737    0.9549    0.7991   -0.1675    0.1960
       327 8178.6750 8179.2810 8179.0210    0.9637    0.9283    0.7142   -0.2328    0.2170
       328 8181.2940 8182.2480 8181.8210    0.9928    0.9742    0.6745   -0.2847    0.2590
       329 8185.9130 8186.6860 8186.3590    0.9823    0.9751    0.7227   -0.2388    0.2140
       330 8188.7220 8189.8120 8189.2500    0.9946    0.9757    0.4447   -0.5022    0.2550
       331 8192.7040 8193.4370 8193.0850    0.9524    0.9324    0.5213   -0.3988    0.2270
       332 8197.3380 8197.9930 8197.6740    0.9546    0.9654    0.4958   -0.4475    0.2090
       333 8199.6610 8200.1780 8199.9350    0.9948    0.9761    0.8705   -0.1008    0.2080
       334 8200.3180 8200.8580 8200.6560    1.0256    0.9897    0.8105   -0.2126    0.2180
       335 8209.3660 8209.7280 8209.4950    0.9691    1.0034    0.8860   -0.0822    0.2330
       336 8211.8020 8212.3940 8212.1030    0.9642    0.9648    0.8213   -0.1333    0.1620
       337 8217.2850 8218.5670 8218.0830    1.0186    0.9994    0.7325   -0.2313    0.2530
       338 8221.2230 8221.8640 8221.5220    0.9974    0.9998    0.8237   -0.1444    0.2680
       339 8223.7340 8224.1810 8223.9660    0.9756    0.9851    0.8303   -0.1974    0.2820
       340 8225.3900 8225.8830 8225.6830    0.9828    0.9952    0.8769   -0.1052    0.2610
       341 8226.6750 8227.3230 8226.9420    0.9207    0.9455    0.4478   -0.4644    0.2070
       342 8227.7450 8228.1260 8228.0230    0.9618    0.6572    0.6230   -0.4978    0.4270
       343 8228.0270 8228.5340 8228.2610    0.7117    0.8786    0.4088   -0.5006    0.3070
       344 8228.5210 8228.9850 8228.7130    0.8792    0.9576    0.7045   -0.2259    0.2660
       345 8229.4640 8229.9850 8229.7190    0.9642    1.0055    0.7369   -0.2487    0.2300
       346 8230.8310 8231.4080 8231.2680    1.0083    0.7739    0.5466   -0.4109    0.2470
       347 8231.4370 8231.8880 8231.6570    0.8526    0.9577    0.7802   -0.1358    0.2300
       348 8233.5950 8234.0720 8233.8830    0.9660    0.9555    0.6755   -0.2694    0.2020
       349 8234.2200 8234.7460 8234.5870    0.9662    0.9884    0.9058   -0.0498    0.1930
       350 8236.9480 8237.4750 8237.2830    0.9629    1.0001    0.8263   -0.1035    0.2410
       351 8239.6610 8240.1310 8239.8870    0.9990    1.0016    0.8845   -0.1118    0.2610
       352 8242.9480 8243.6250 8243.4790    0.9921    0.8503    0.6524   -0.2935    0.2330
       353 8247.8660 8248.6900 8248.2890    0.9645    0.9715    0.9149   -0.0439    0.2000
       354 8252.3850 8253.0650 8252.6890    0.9298    0.9517    0.8438   -0.1128    0.2820
       355 8256.2150 8256.8600 8256.5010    1.0086    0.9550    0.5836   -0.3834    0.2130
       356 8259.3400 8260.0890 8259.6520    0.9877    0.9823    0.7780   -0.1847    0.2520
       357 8263.0980 8263.7460 8263.3980    0.9859    0.9749    0.8317   -0.1316    0.2490
       358 8271.4370 8272.4750 8272.0220    0.9500    0.9943    0.7380   -0.2016    0.2550
       359 8274.0160 8274.5920 8274.3400    0.9630    0.9151    0.5802   -0.3821    0.2320
       360 8275.0490 8275.3660 8275.1700    1.0039    0.9475    0.9290   -0.0421    0.1000
       361 8276.2670 8276.8860 8276.6280    1.0419    0.9870    0.8164   -0.2247    0.4260
       362 8279.0980 8280.0990 8279.5870    0.9933    0.9583    0.6868   -0.2612    0.2780
       363 8281.4420 8282.4610 8282.0040    0.9369    0.9900    0.5649   -0.4077    0.2280
       364 8284.9270 8285.4030 8285.0680    0.9574    1.0104    0.9227   -0.0923    0.4040
       365 8286.0940 8286.3730 8286.2090    0.9731    0.9908    0.9233   -0.0629    0.1880
       366 8286.3400 8286.8830 8286.6810    0.9804    0.9881    0.9234   -0.0509    0.0400
       367 8287.4450 8288.3650 8287.9150    0.9681    1.0162    0.5495   -0.4063    0.2320
       368 8289.1730 8289.7930 8289.5140    1.0005    0.9747    0.7292   -0.2263    0.2450
       369 8293.7030 8294.6750 8294.1480    0.9487    0.9532    0.7262   -0.1881    0.1600
       370 8300.7410 8300.0830 8300.4020    0.9956    0.9574    0.7235   -0.2407    0.2270
       371 8303.9350 8304.6620 8304.2990    0.9828    1.0168    0.8027   -0.1547    0.2500
       372 8304.7790 8305.4830 8305.0620    1.0014    0.9534    0.6432   -0.3179    0.2230
       373 8311.4360 8312.3090 8311.9130    1.0094    0.9687    0.8181   -0.1189    0.2290
       374 8315.7740 8316.5350 8316.1660    1.0294    1.0342    0.8919   -0.1327    0.2250
       375 8317.8350 8318.4150 8318.1170    1.0062    0.9558    0.7349   -0.2396    0.2350
       376 8320.9180 8321.3750 8321.2380    1.0046    0.8354    0.7426   -0.3061    0.3200
       377 8321.3750 8321.9250 8321.5310    0.8354    0.9571    0.6712   -0.2549    0.2420
       378 8329.4370 8329.9570 8329.6280    1.0190    1.0010    0.8310   -0.1439    0.2350
       379 8335.4370 8336.0610 8335.4750    0.9551    0.9684    0.9199   -0.0582    0.0180
       380 8338.6660 8339.2480 8339.0100    0.9426    0.9942    0.7939   -0.1532    0.1970
       381 8350.1530 8350.7880 8350.2450    0.9796    1.0161    0.8976   -0.0610    0.1630
       382 8353.4180 8353.9350 8353.6320    0.9910    1.0118    0.8958   -0.0958    0.2720
       383 8356.8090 8357.4540 8357.0210    1.0111    0.9746    0.8721   -0.1002    0.1940
       384 8361.8020 8362.5620 8362.0920    0.9371    1.0054    0.8919   -0.1235    0.8050
       385 8367.0410 8367.5290 8367.2530    0.9228    0.9713    0.8697   -0.0753    0.1320
       386 8377.3230 8377.8870 8377.6240    0.9890    0.9785    0.9177   -0.0754    0.1760
       387 8391.4650 8392.0090 8391.8510    0.9996    1.0060    0.9372   -0.0275    0.0980
       388 8396.7680 8397.2530 8396.8690    0.9400    1.0129    0.8935   -0.0505    0.1200
       389 8408.8230 8409.2880 8409.1810    0.9792    0.9826    0.8727   -0.1115    0.2290
       390 8430.6470 8431.0000 8430.8100    0.9976    0.9924    0.9082   -0.1023    0.3210
       391 8432.8720 8433.6450 8432.9370    1.0043    1.0209    0.9468   -0.0630    0.0580
         1 8933.8090 8934.8230 8934.1410    0.9337    1.0133    0.8886   -0.0863    0.3160
         2 8939.9660 8940.5290 8940.1880    0.9796    0.9954    0.9123   -0.0717    0.1620
         3 8942.0560 8942.6430 8942.2950    1.0158    1.0013    0.8873   -0.1136    0.2270
         4 8946.5510 8947.1450 8946.8520    0.9638    1.0095    0.8898   -0.1130    0.2040
         5 8951.4630 8951.8860 8951.7510    1.0103    0.9308    0.9172   -0.2837    0.8580
         6 8951.8860 8952.4490 8952.1740    0.9308    0.9829    0.8387   -0.1106    0.2030
         7 8954.0270 8954.5620 8954.2950    1.0196    1.0072    0.7865   -0.2726    0.3660
         8 8954.5620 8955.3230 8954.9410    1.0072    0.9643    0.6982   -0.2788    0.2510
         9 8962.1390 8962.6880 8962.4190    0.8947    0.8738    0.7101   -0.6134    0.8580
        10 8962.4670 8962.8420 8962.5210    0.7443    0.9672    0.7380   -0.2360    0.3570
        11 8963.2760 8963.7110 8963.4870    0.9530    0.9458    0.6995   -0.2677    0.2100
        12 8965.0020 8965.7770 8965.4490    0.9837    0.9466    0.6443   -0.3343    0.2550
        13 8966.2240 8966.6040 8966.3740    0.9130    0.9911    0.7891   -0.2667    0.3490
        14 8970.7740 8971.2540 8971.0730    1.0252    0.9133    0.8108   -0.1990    0.3660
        15 8971.2540 8971.8880 8971.5610    0.9133    0.9406    0.5824   -0.4109    0.3400
        16 8972.5260 8973.0360 8972.8670    1.0052    0.9969    0.8755   -0.1090    0.1720
        17 8973.9740 8974.4340 8974.2480    0.9988    0.9444    0.8168   -0.1546    0.2240
        18 8974.4170 8974.9920 8974.7440    0.9451    0.9862    0.7861   -0.1812    0.2090
        19 8976.1430 8976.6040 8976.3850    1.0100    1.0285    0.9136   -0.1589    0.3650
        20 8980.0190 8981.0890 8980.5210    0.9693    0.9485    0.4325   -0.5539    0.3490
        21 8986.2180 8986.9570 8986.5790    0.9881    0.9095    0.5287   -0.4269    0.2450
        22 8986.9790 8987.9720 8987.5840    0.9386    0.9088    0.3785   -0.5095    0.3200
        23 8987.9080 8988.3730 8988.1070    0.8895    0.9745    0.8219   -0.2443    0.5510
        24 8988.6900 8989.4510 8989.0620    0.9558    0.8719    0.6916   -0.2220    0.2240
        25 8990.2710 8991.1400 8990.8100    0.9690    0.9045    0.4696   -0.4502    0.2790
        26 8991.1400 8991.8680 8991.6900    0.9045    0.6802    0.3525   -0.5548    0.2790
        27 8991.8680 8992.4080 8991.9540    0.6802    0.9308    0.6362   -0.3094    0.3410
        28 8999.7530 9000.5800 9000.2720    0.9469    0.7637    0.2893   -0.5735    0.3210
        29 9000.5800 9001.0970 9000.7000    0.7637    0.9102    0.6719   -0.2363    0.2550
        30 9003.1260 9003.7180 9003.6070    0.9265    0.6670    0.5732   -0.3474    0.2890
        31 9003.7460 9004.4220 9003.8650    0.6775    0.8547    0.5875   -0.3048    0.3200
        32 9006.4610 9007.1330 9007.0670    0.9046    0.7627    0.7438   -0.2895    1.2540
        33 9006.3690 9008.3540 9007.5410    0.8611    0.8752    0.6123   -0.1899    0.2470
        34 9008.7500 9009.8180 9009.0610    0.8311    0.8082    0.7168   -0.0793    0.2420
        35 9011.2840 9012.3830 9011.8540    0.7429    0.7896    0.4109   -0.3346    0.3030
        36 9016.1250 9017.0270 9016.7020    0.7940    0.7085    0.2328   -0.5710    0.4390
        37 9022.1000 9023.0360 9022.6190    0.8484    0.9014    0.4005   -0.4474    0.2790
        38 9025.5350 9026.1100 9025.8880    0.8416    0.8067    0.3041   -0.5698    0.2750
        39 9031.0320 9031.5590 9031.3780    0.9700    0.8953    0.7353   -0.2559    0.2980
        40 9042.4790 9042.9950 9042.7950    1.0753    0.8728    0.7939   -0.8120    0.8090
        41 9052.3940 9053.5490 9052.9440    0.9582    0.9802    0.6569   -0.3162    0.2690
        42 9059.8800 9060.6740 9060.4030    0.9875    1.0102    0.7033   -0.2523    0.2520
        43 9062.4130 9063.1150 9062.6840    0.9654    0.9561    0.7894   -0.1461    0.3040
        44 9063.6880 9064.3920 9064.0160    0.9028    0.9763    0.7815   -0.1538    0.2530
        45 9068.7310 9069.5070 9069.1100    0.9931    0.9991    0.3775   -0.5621    0.2910
        46 9071.4090 9072.4610 9071.9310    1.0087    1.0026    0.3854   -0.5993    0.3070
        47 9073.9890 9074.8940 9074.2850    0.9124    1.0156    0.6918   -0.3027    0.3090
        48 9078.7030 9079.1730 9079.0300    0.9350    0.9123    0.8401   -0.1124    0.2190
        49 9079.1730 9079.6240 9079.3640    0.9123    0.9150    0.8385   -0.0821    0.1560
        50 9079.5490 9080.1120 9079.8220    0.9482    0.8909    0.6260   -0.2985    0.1970
        51 9080.3180 9080.7880 9080.5380    0.9962    1.0797    0.9306   -0.1981    0.5120
        52 9080.9380 9081.6150 9081.2880    1.0356    0.9413    0.5424   -0.4280    0.2610
        53 9085.2460 9085.5840 9085.4600    0.9976    0.9950    0.9285   -0.0711    0.1380
        54 9086.1760 9086.6830 9086.5750    1.0045    0.7991    0.6932   -0.3065    0.2780
        55 9086.7460 9087.4220 9087.0020    0.8171    0.9440    0.3602   -0.5724    0.2730
        56 9088.6510 9089.2150 9088.9310    1.0338    1.0399    0.9759   -0.0606    0.3840
        57 9089.3090 9090.0130 9089.7840    1.0484    1.0252    0.9002   -0.1242    0.3350
        58 9090.0360 9090.6930 9090.2960    1.0250    1.0685    0.9254   -0.0635    0.3090
        59 9092.0790 9092.7830 9092.4480    1.0960    1.1503    0.8147   -0.2285    0.2050
        60 9093.3940 9094.1690 9093.7650    1.1202    1.0616    0.8526   -0.2457    0.2540
        61 9094.7560 9095.8830 9095.3170    1.0898    1.1034    0.9272   -0.1367    0.1960
        62 9098.1780 9098.8500 9098.4490    1.0017    1.0043    0.8940   -0.0942    0.3070
        63 9099.3920 9100.2180 9099.7530    0.9350    0.9195    0.5444   -0.4045    0.2480
        64 9100.2180 9100.9160 9100.4940    0.9195    1.0077    0.6959   -0.2750    0.2800
        65 9105.0420 9105.7180 9105.3880    0.9957    0.9921    0.6202   -0.3943    0.2510
        66 9105.9720 9106.5070 9106.1740    1.0586    1.0626    0.9446   -0.1151    0.2490
        67 9106.5630 9107.1840 9107.0450    1.0667    0.9676    0.9081   -0.1304    0.3900
        68 9107.1840 9107.6340 9107.3690    0.9676    1.0678    0.8166   -0.2660    0.3130
        69 9107.9570 9108.4450 9108.3130    0.9940    0.9368    0.7942   -0.2018    0.1950
        70 9115.3780 9115.7770 9115.6070    1.0448    1.0164    0.8857   -0.1728    0.2680
        71 9117.6190 9118.2670 9117.9860    0.9952    1.0094    0.7054   -0.2650    0.2390
        72 9118.4920 9119.2810 9118.8990    0.9919    0.9582    0.3843   -0.5856    0.2940
        73 9124.4990 9125.0740 9124.8870    1.0021    1.0286    0.9661   -0.0330    0.0600
        74 9127.5890 9127.9830 9127.8070    1.0114    1.0070    0.8899   -0.1577    0.3040
        75 9128.4220 9128.8540 9128.5790    0.9846    1.0221    0.8120   -0.1931    0.2220
        76 9129.5490 9129.9990 9129.8550    1.0038    0.8847    0.7886   -0.1742    0.2310
        77 9130.2810 9131.0890 9130.5690    0.9531    1.0212    0.4659   -0.4973    0.2790
        78 9132.1040 9132.6670 9132.4230    0.9995    0.9925    0.8743   -0.1233    0.2580
        79 9133.9780 9134.5270 9134.2770    1.0150    0.9648    0.8164   -0.1903    0.2450
        80 9134.5270 9135.2880 9134.7520    0.9648    1.0168    0.8779   -0.0578    0.2640
        81 9135.6680 9136.2600 9135.9830    0.9986    0.9090    0.6417   -0.3160    0.2710
        82 9136.2600 9136.7880 9136.5560    0.9090    0.8928    0.4016   -0.5001    0.2400
        83 9136.7880 9137.2530 9137.0330    0.8928    0.9665    0.6763   -0.2119    0.1830
        84 9140.1060 9140.7180 9140.4450    1.0054    0.9872    0.9325   -0.0685    0.2230
        85 9140.6700 9141.3280 9141.1550    0.9860    1.0246    0.9555   -0.0508    0.1810
        86 9149.6500 9150.2700 9150.0100    1.0167    1.0304    0.8234   -0.1490    0.2310
        87 9150.4780 9150.9840 9150.7880    0.9951    1.0342    0.9341   -0.0578    0.1160
        88 9151.3510 9152.3090 9151.7180    1.0101    0.9954    0.8608   -0.0670    0.1910
        89 9152.3090 9152.9850 9152.5830    0.9954    0.8373    0.6999   -0.1719    0.2630
        90 9152.9570 9153.4640 9153.1460    0.8674    0.9881    0.6009   -0.3859    0.2610
        91 9155.0420 9155.5490 9155.4450    0.9736    0.6252    0.6017   -0.4412    0.4240
        92 9155.4920 9156.0840 9155.6760    0.6461    0.9540    0.3929   -0.4584    0.3340
        93 9156.0840 9156.4790 9156.1270    0.9540    0.9951    0.8778   -0.0920    0.0360
        94 9156.4790 9156.9580 9156.8090    0.9951    0.9635    0.8638   -0.1139    0.1520
        95 9159.6660 9160.2460 9160.0840    1.0340    0.9791    0.8395   -0.1598    0.2240
        96 9160.5520 9161.2530 9160.8690    0.9884    1.0482    0.8572   -0.1622    0.2560
        97 9167.7730 9168.0980 9167.9220    0.9352    0.9766    0.8134   -0.3694    0.4270
        98 9168.5770 9168.8020 9168.7590    1.0215    0.9714    0.9138   -0.0623    0.0300
        99 9169.0690 9169.3230 9169.2400    1.0352    0.9969    0.9565   -0.0867    0.1560
       100 9169.3230 9169.6190 9169.4220    0.9969    1.0163    0.8848   -0.1546    0.1730
       101 9173.7430 9174.5490 9174.1010    0.9725    0.9649    0.4477   -0.4726    0.3360
       102 9174.5490 9174.9590 9174.8120    0.9649    0.9670    0.9033   -0.0953    0.1810
       103 9174.9590 9175.4850 9175.2080    0.9670    0.9845    0.6040   -0.3443    0.2480
       104 9176.6190 9177.1950 9176.8500    1.0196    0.9170    0.5846   -0.2458    0.1320
       105 9178.3840 9178.8920 9178.4100    0.8885    0.9549    0.8055   -0.1603    0.0270
       106 9184.1260 9184.6110 9184.4010    0.9165    1.0319    0.6658   -0.3630    0.2630
       107 9184.6750 9185.2880 9184.9390    0.8970    1.0317    0.6850   -0.2215    0.2150
       108 9191.2810 9191.8920 9191.5360    0.9859    1.0669    0.8919   -0.0928    0.1190
       109 9191.8920 9192.9720 9192.5210    1.0669    1.0168    0.8293   -0.1614    0.3930
       110 9194.9670 9195.6950 9195.3320    0.9885    0.9856    0.6455   -0.3052    0.2720
       111 9195.7240 9196.2920 9195.9840    0.9760    1.0138    0.7918   -0.1941    0.2320
       112 9205.3800 9205.9150 9205.6600    0.9595    0.9388    0.8765   -0.0703    0.0790
       113 9212.5050 9213.0850 9212.7880    0.9708    0.9325    0.8087   -0.1372    0.2540
       114 9214.3800 9215.0020 9214.6680    0.9397    0.8714    0.7380   -0.1887    0.2730
       115 9216.7730 9217.7880 9217.2550    0.9486    0.9896    0.6952   -0.2488    0.6040
       116 9224.5160 9225.5350 9225.0140    0.8196    0.7876    0.6096   -0.1568    0.2550
       117 9234.5060 9235.1830 9234.7650    0.8726    0.8558    0.7533   -0.1147    0.2360
       118 9237.7810 9238.3730 9238.0790    0.9183    0.9181    0.8166   -0.0939    0.1940
       119 9238.3730 9239.2190 9238.9790    0.9181    0.9031    0.8178   -0.0855    0.0500
       120 9246.0600 9246.5760 9246.2710    0.9722    1.0098    0.7958   -0.2937    0.4300
       121 9249.1070 9249.5720 9249.4590    1.0116    0.9752    0.8764   -0.1104    0.1320
       122 9250.6050 9251.5350 9251.0780    1.0312    0.9312    0.7498   -0.1948    0.2700
       123 9260.0620 9260.8870 9260.3590    0.9128    0.9654    0.7902   -0.1428    0.2310
       124 9262.0500 9262.4280 9262.2690    0.9413    0.9750    0.8490   -0.0886    0.1550
       125 9265.9950 9266.4220 9266.1020    1.0034    0.9892    0.8938   -0.0892    0.0480
       126 9272.7420 9273.1170 9272.9720    1.0105    0.9183    0.8810   -0.2249    0.4250
       127 9273.1170 9273.4180 9273.1870    0.9183    1.0377    0.8803   -0.1328    0.1770
       128 9278.3730 9279.1760 9278.8080    0.9653    0.9779    0.5487   -0.4488    0.3810
       129 9278.4160 9279.2150 9278.8080    1.0503    0.9739    0.5487   -0.4474    0.3810
       130 9279.3320 9279.8960 9279.7320    0.9585    0.9683    0.8487   -0.1160    0.2490
       131 9279.8960 9280.3420 9280.1010    0.9683    0.9586    0.7865   -0.2164    0.3140
       132 9284.5680 9285.2260 9284.9000    0.9830    0.9170    0.6093   -0.3484    0.2800
       133 9286.1880 9286.8350 9286.4300    0.9959    0.9512    0.7231   -0.1862    0.2430
       134 9288.7710 9289.2110 9288.8950    1.0388    0.9776    0.8553   -0.1276    0.1340
       135 9289.6500 9290.0370 9289.8130    0.9630    0.9629    0.8289   -0.1456    0.1680
       136 9291.0450 9291.6650 9291.3140    0.9795    1.0014    0.7563   -0.2256    0.2540
       137 9292.7310 9293.4920 9293.1230    0.9958    1.0117    0.7834   -0.1902    0.2430
       138 9293.9990 9294.7600 9294.4620    1.0190    0.8770    0.7260   -0.2130    0.3810
       139 9294.7600 9295.4920 9295.0930    0.8770    1.0709    0.6493   -0.6582    0.7600
       140 9297.1630 9298.0180 9297.6910    0.8988    0.8053    0.5880   -0.2888    0.4290
       141 9297.7730 9298.5980 9297.8560    0.7792    0.9155    0.7664   -0.1818    0.7310
       142 9299.8180 9300.5520 9300.3890    1.0531    0.6207    0.5325   -0.4575    0.3690
       143 9300.7650 9301.4060 9301.0150    0.8073    0.9677    0.4842   -0.4522    0.2190
       144 9301.6500 9302.1390 9301.8850    0.9338    0.9832    0.7055   -0.2506    0.2120
       145 9303.4760 9304.1100 9303.8270    0.9442    0.9734    0.3917   -0.5829    0.2640
       146 9304.8850 9304.3450 9304.4970    0.9449    1.0014    0.7728   -0.1870    0.0140
       147 9307.0410 9307.4070 9307.2330    0.9893    0.9873    0.8303   -0.2134    0.2890
       148 9307.5340 9308.4500 9308.0420    0.8891    1.0260    0.3064   -0.7446    0.4590
       149 9309.0690 9309.8730 9309.4790    0.9154    0.7837    0.0975   -1.0453    0.5810
       150 9311.3800 9311.8730 9311.7090    0.9684    0.8895    0.6785   -0.2777    0.2110
       151 9313.6780 9314.4500 9314.0040    0.9605    0.9811    0.8295   -0.1457    0.3350
       152 9314.5810 9315.4850 9315.1460    0.9939    0.9000    0.3039   -0.6285    0.3270
       153 9315.4850 9316.0770 9315.9060    0.9000    0.7142    0.2768   -0.5863    0.2970
       154 9316.0770 9316.5210 9316.1720    0.7142    0.5659    0.0003   -0.4720    0.0970
       155 9316.5210 9317.2280 9316.8010    0.5659    0.7600   -0.1019   -0.9386    0.5660
       156 9318.4970 9319.4550 9319.0480    0.9142    0.9439    0.2231   -0.5997    0.3040
       157 9320.3750 9320.9950 9320.6900    1.0101    1.0238    0.6167   -0.3688    0.1670
       158 9322.1410 9322.8170 9322.4950    0.8810    0.8153    0.4191   -0.3756    0.2300
       159 9322.8170 9323.4550 9323.1260    0.8153    0.6968    0.2371   -0.6047    0.2500
       160 9323.8090 9324.5270 9324.1710    0.9121    0.7454    0.2057   -0.5631    0.2430
       161 9324.5910 9325.0760 9324.9240    0.8075    0.4536    0.3317   -0.7507    0.5450
       162 9324.9920 9325.7310 9325.4050    0.4241    0.6107    0.0843   -0.7045    0.6920
       163 9327.2740 9328.1830 9327.7500    1.0192    0.9798    0.1918   -0.7549    0.3820
       164 9328.0990 9329.0070 9328.6920    0.8860    1.0125    0.7850   -0.1216    0.1960
       165 9330.2250 9330.7410 9330.5260    0.8405    0.9680    0.7581   -0.1463    0.0490
       166 9330.9050 9331.9150 9331.4380    0.9746    0.9570    0.2985   -0.5913    0.2960
       167 9332.6890 9334.0050 9333.5360    0.9632    0.7864    0.0264   -0.8528    0.4940
       168 9334.0050 9335.2720 9334.5020    0.7864    0.9141    0.1000   -0.7773    0.4490
       169 9335.1040 9335.7750 9335.6170    0.9368    0.8869    0.7563   -0.1703    0.2430
       170 9335.7750 9336.5240 9336.0520    0.8869    0.8693    0.4534   -0.4397    0.2370
       171 9336.7050 9337.4290 9337.1290    1.0313    0.9445    0.5516   -0.4285    0.3150
       172 9337.9710 9338.8230 9338.4090    0.9907    0.8577    0.3999   -0.5133    0.2910
       173 9338.7980 9340.0630 9339.3580    0.8611    0.9233    0.0648   -0.8323    0.4670
       174 9341.8300 9343.0690 9342.5940    0.8671    0.5983    0.0051   -0.9059    0.6890
       175 9342.9570 9343.8580 9343.5630    0.4893    0.3496    0.1250   -0.4486    0.3770
       176 9343.8020 9344.6470 9344.1010    0.4055    0.7614    0.0281   -0.7992    0.5980
       177 9344.6760 9346.4500 9345.4790    0.7917    0.8272    0.0220   -0.7893    0.6040
       178 9346.0280 9347.0700 9346.0370    0.7493    0.9354    0.7297   -0.1278    0.0990
       179 9349.9400 9351.0400 9350.4100    0.9859    1.0213    0.7076   -0.2850    0.2960
       180 9352.3530 9353.2070 9352.9960    1.0028    0.6197    0.3636   -0.6187    0.4590
       181 9353.2410 9353.7580 9353.5100    0.5581    0.5498    0.1673   -0.4680    0.2900
       182 9353.7580 9354.6390 9354.2500    0.5498    0.5493    0.0085   -0.6456    0.5170
       183 9354.9280 9355.3930 9355.1360    0.8358    0.9310    0.7513   -0.5585    0.7490
       184 9356.9290 9358.0410 9357.6350    0.8801    0.5127    0.0321   -0.9850    0.7550
       185 9358.0410 9359.1120 9358.5780    0.5127    0.7870    0.0470   -0.6255    0.5520
       186 9360.8730 9361.5500 9361.2080    1.0139    1.0279    0.6924   -0.3135    0.2670
       187 9363.0860 9363.6450 9363.3540    1.0389    1.0432    0.8909   -0.1238    0.2850
       188 9364.1710 9365.4850 9364.8660    0.9856    0.9304    0.1148   -0.8258    0.4320
       189 9365.6010 9366.9150 9366.3960    0.9007    0.8825    0.0717   -0.8303    0.4590
       190 9368.6280 9369.6430 9369.3790    0.9052    0.5331    0.0444   -0.8543    0.4820
       191 9370.4870 9372.2530 9371.4160    0.8768    0.8525    0.0050   -0.9064    0.8540
       192 9373.5130 9374.8230 9374.3000    0.9768    0.9945    0.9165   -0.0698    0.1020
       193 9375.7530 9374.7380 9375.2280    0.9587    0.9874    0.6416   -0.3406    0.2340
       194 9376.6410 9378.4150 9377.6460    1.0518    0.8986    0.0138   -0.8878    0.5900
       195 9379.1210 9380.0600 9379.6440    0.9694    0.9413    0.4735   -0.4961    0.3950
       196 9380.0600 9381.7730 9381.1310    0.9413    0.8063    0.0119   -0.8926    0.7260
       197 9381.8450 9382.5020 9382.1020    0.8470    0.9836    0.6095   -0.3159    0.3370
       198 9382.9720 9384.0520 9383.5280    0.9825    1.0545    0.7925   -0.1863    0.2970
       199 9385.9310 9387.3770 9386.7660    0.9252    0.8333    0.1088   -0.9972    0.8540
       200 9387.3770 9388.0490 9387.7720    0.8333    0.9267    0.6386   -0.2560    0.2080
       201 9390.9280 9392.7600 9391.7370    1.0306    1.0521    0.6259   -0.3691    0.2560
       202 9393.7460 9395.1260 9394.3180    1.0231    1.0213    0.8298   -0.1560    0.5090
       203 9395.7460 9396.7610 9396.2500    0.9751    1.0255    0.8515   -0.1626    0.2990
       204 9397.8960 9399.6360 9398.9870    1.0228    0.9669    0.2608   -0.6845    0.3540
       205 9399.5740 9400.8260 9400.0690    0.9735    1.0447    0.6644   -0.3400    0.3030
       206 9401.1310 9401.9860 9401.5880    1.0162    0.9550    0.5354   -0.4488    0.2630
       207 9402.1990 9402.9320 9402.5880    0.9803    1.0140    0.7867   -0.1991    0.2590
       208 9403.4050 9404.0160 9403.7220    0.9941    0.9746    0.7854   -0.1834    0.2790
       209 9404.1920 9404.7090 9404.4550    0.9419    0.9887    0.8489   -0.1216    0.2480
       210 9406.3790 9407.7600 9406.8720    0.9707    1.0614    0.6073   -0.3955    0.2870
       211 9408.3520 9409.1960 9409.0020    0.9979    0.9193    0.5819   -0.4394    0.2900
       212 9409.5490 9411.0420 9410.3780    0.9678    0.9489    0.1222   -0.8149    0.4930
       213 9411.0420 9411.5070 9411.2940    0.9489    0.9896    0.8168   -0.1586    0.2290
       214 9413.1510 9413.7430 9413.4700    1.0307    0.9179    0.7938   -0.1639    0.2100
       215 9413.7430 9414.4500 9414.0040    0.9179    1.0159    0.8264   -0.1637    0.2580
       216 9416.6360 9417.1620 9416.9350    1.0516    0.9393    0.8820   -0.2661    0.6890
       217 9417.1060 9418.0840 9417.6450    0.9723    0.9663    0.0893   -0.8795    0.4650
       218 9420.3380 9421.0520 9420.6680    0.9953    0.9217    0.8519   -0.1133    0.0800
       219 9421.1460 9422.3280 9421.8090    0.9955    0.9549    0.2304   -0.7376    0.3580
       220 9424.3790 9425.1830 9424.7700    1.0220    1.0219    0.9239   -0.1063    0.4280
       221 9425.8370 9427.4650 9426.8670    1.0045    0.7517    0.0062   -0.8955    0.6740
       222 9427.4650 9428.9650 9428.2050    0.7517    0.8629   -0.0206   -0.8171    0.5940
       223 9429.9420 9431.1870 9430.5950    0.9260    0.9793    0.0963   -0.8200    0.3920
       224 9436.6030 9438.5650 9437.8200    1.0212    1.0048    0.0622   -0.9311    0.7370
       225 9439.4690 9440.9160 9440.7290    0.9691    0.0644   -0.0108   -0.9744    0.7690
       226 9440.8120 9441.3540 9440.9860    0.0460    0.4866    0.0160   -1.7819    1.1350
       227 9441.9990 9442.6750 9442.4110    0.9294    0.9212    0.6084   -0.3172    0.2630
       228 9442.7310 9443.8580 9443.2970    0.9025    0.9441    0.1006   -0.8215    0.3960
       229 9444.0840 9444.5620 9444.3730    0.9284    0.9267    0.6030   -0.3387    0.2520
       230 9445.3800 9446.4790 9445.9790    1.0509    1.0402    0.3172   -0.6502    0.3190
       231 9448.5670 9449.4830 9449.1460    1.0742    0.9652    0.7042   -0.2872    0.2950
       232 9449.4830 9450.6740 9450.2890    0.9652    0.9877    0.5035   -0.4460    0.3030
       233 9453.6640 9454.3330 9454.0810    1.0257    0.7202    0.2740   -0.6437    0.3740
       234 9454.3210 9455.0370 9454.6530    0.6872    0.8555    0.1859   -0.6295    0.3220
       235 9455.6040 9456.5200 9456.1530    0.9324    0.7578    0.0566   -0.8402    0.4510
       236 9459.3800 9460.0270 9459.9700    0.9567    0.1064    0.0526   -0.8180    0.5160
       237 9460.5630 9461.6480 9461.3000    0.7643    0.6984   -0.0732   -0.4836    0.3370
       238 9465.1560 9465.7810 9465.4750    0.8541    1.0852    0.4157   -0.5025    0.1900
       239 9467.3700 9468.0840 9467.8550    0.9671    0.9030    0.6710   -0.2339    0.0510
       240 9468.1960 9468.9670 9468.6320    0.8665    0.8182    0.5128   -0.3232    0.2300
       241 9468.9290 9469.9620 9469.3660    0.8200    0.8997    0.2061   -0.6767    0.4350
       242 9470.0940 9470.9010 9470.4600    1.0010    0.9975    0.7082   -0.2267    0.2170
       243 9473.8720 9474.8870 9474.4750    1.0384    0.7227    0.3209   -0.5158    0.2850
       244 9475.6260 9476.3230 9475.9700    0.9437    1.0188    0.7087   -0.2996    0.4240
       245 9479.3790 9480.7410 9480.2210    1.0423    0.8841    0.0832   -0.8852    0.5690
       246 9480.7410 9482.1260 9481.6370    0.8841    0.7115    0.0105   -0.8494    0.6150
       247 9482.1260 9482.8300 9482.3680    0.7115    0.9465    0.4683   -0.4602    0.4590
       248 9485.4660 9486.2400 9486.0100    0.9870    1.0179    0.7327   -0.2615    0.2840
       249 9486.5760 9487.0410 9486.8290    1.0670    1.1270    0.8665   -0.6212    0.6320
       250 9487.0670 9487.6360 9487.3630    1.0211    1.0048    0.7577   -0.5250    0.6770
       251 9492.6180 9493.6610 9493.4320    0.9771    0.7369    0.3487   -0.6056    0.3860
       252 9493.7180 9495.0990 9494.2480    0.7868    0.9015    0.0547   -0.9100    0.6740
       253 9496.5070 9497.8880 9497.4090    0.9028    0.9124    0.1004   -0.8353    0.4320
       254 9499.2080 9500.0620 9499.6850    0.8594    0.9402    0.6163   -0.2536    0.2110
       255 9500.0620 9501.3450 9500.8570    0.9402    0.5937    0.0045   -0.9524    0.8170
       256 9501.3450 9502.4430 9501.6460    0.5937    1.0177    0.1350   -0.7935    0.4850
       257 9503.9740 9504.8450 9504.4070    1.1189    1.0625    0.8875   -0.1427    0.1440
       258 9505.0580 9505.9130 9505.5980    1.1068    1.0121    0.7190   -0.2987    0.3370
       259 9510.3940 9511.1260 9510.7310    1.0644    1.0054    0.7681   -0.2029    0.1810
       260 9512.3100 9512.9110 9512.5880    0.9886    0.9743    0.8090   -0.1686    0.3160
       261 9513.2600 9514.0620 9513.7100    0.9534    0.9417    0.6853   -0.2695    0.2960
       262 9514.0620 9514.7810 9514.4550    0.9417    0.9375    0.7002   -0.2565    0.2050
       263 9516.3030 9517.5280 9516.9730    0.7787    0.7095    0.0499   -0.7010    0.5190
       264 9517.6340 9518.2040 9517.9850    0.8569    0.9400    0.8016   -0.1053    0.2230
       265 9518.7320 9519.8730 9519.3130    0.8744    0.8932    0.2213   -0.6471    0.3350
       266 9520.1780 9520.9050 9520.5440    0.9124    0.9028    0.8081   -0.1317    0.1460
       267 9521.3750 9523.1120 9522.2260    0.9696    0.9231    0.0232   -0.9009    0.6490
       268 9523.3000 9523.9100 9523.5000    0.9747    0.9216    0.7718   -0.1391    0.2030
       269 9524.5210 9525.6250 9525.0790    0.9222    0.9273    0.3155   -0.5991    0.3010
       270 9526.9640 9527.8940 9527.4960    0.9588    0.9120    0.6434   -0.2783    0.2620
       271 9527.9200 9528.7710 9528.4390    0.9250    0.7622    0.2569   -0.6235    0.3540
       272 9529.1070 9529.7010 9529.4050    0.9050    0.9283    0.4977   -0.3810    0.1830
       273 9531.2670 9531.9990 9531.7060    0.8719    0.9800    0.7006   -0.2274    0.2140
       274 9533.0690 9533.8580 9533.3620    0.9453    0.9649    0.7922   -0.1489    0.3020
       275 9535.1540 9536.6470 9535.9760    0.9523    0.9049    0.2047   -0.6950    0.4930
       276 9537.7430 9538.7200 9538.3230    0.9108    0.8514    0.5840   -0.3083    0.3230
       277 9540.1240 9541.4670 9540.8700    0.8891    0.8117    0.2989   -0.4543    0.3080
       278 9543.3350 9544.0040 9543.9040    0.6817    0.1396    0.0466   -0.6302    0.4480
       279 9543.8750 9544.5920 9544.0630    0.0550    0.5715    0.0466   -1.8528    1.5420
       280 9545.4210 9546.1110 9545.7990    0.7034    0.7727    0.4993   -0.2541    0.2790
       281 9546.2800 9546.7870 9546.5100    0.8106    0.8351    0.6698   -0.1373    0.2170
       282 9548.2670 9549.0690 9548.6550    0.9635    0.8484    0.5400   -0.2778    0.3710
       283 9552.7240 9553.7100 9553.3980    0.9221    0.5902    0.1054   -0.7341    0.4190
       284 9554.1380 9554.5980 9554.4280    0.7489    0.8487    0.5217   -0.2395    0.1900
       285 9555.6660 9556.3080 9556.0290    0.8969    0.9735    0.5912   -0.3100    0.2430
       286 9556.4380 9557.8690 9557.2400    0.9460    0.9177    0.2002   -0.6157    0.5140
       287 9558.0460 9558.6850 9558.3800    0.9396    0.9851    0.6856   -0.2796    0.2450
       288 9561.9900 9563.1740 9562.6550    1.0635    0.9998    0.4551   -0.4460    0.3810
       289 9563.4710 9564.3370 9563.8570    0.9709    1.0049    0.5249   -0.4602    0.2920
       290 9564.5270 9565.5840 9565.0280    0.9772    0.9766    0.2411   -0.7312    0.3220
       291 9565.8160 9567.2740 9566.6040    0.9965    1.0203    0.1151   -0.8666    0.4650
       292 9568.3310 9569.2820 9568.8610    1.0433    0.9410    0.5731   -0.4091    0.4810
       293 9569.9190 9570.7410 9570.3050    1.0279    1.0627    0.8163   -0.1848    0.2190
       294 9570.6700 9571.6330 9571.2960    0.9775    1.0570    0.4172   -0.4817    0.2500
       295 9576.4730 9577.6360 9577.0060    1.0965    1.0054    0.7506   -0.2571    0.2760
       296 9579.0300 9580.4250 9579.9600    0.9606    0.9835    0.4536   -0.5191    0.4700
       297 9580.5020 9581.5350 9581.0850    0.9808    0.8750    0.1675   -0.6864    0.3330
       298 9581.3790 9582.3090 9581.7590    0.8679    1.0083    0.6097   -0.3502    0.2660
       299 9585.4370 9586.2260 9585.8810    0.9507    1.1323    0.7889   -0.1974    0.2590
       300 9586.5630 9587.6340 9587.1180    1.0732    1.0602    0.6782   -0.3606    0.3100
       301 9588.1090 9588.8120 9588.5820    0.9846    0.8579    0.5416   -0.4028    0.5210
       302 9588.8120 9589.6660 9589.0700    0.8579    0.9607    0.3247   -0.5193    0.2420
       303 9589.8180 9590.7650 9590.1820    1.0282    1.0188    0.4846   -0.4817    0.2770
       304 9590.8560 9591.6810 9591.2190    1.0551    0.9222    0.4517   -0.4946    0.2760
       305 9591.6500 9592.2300 9591.9230    0.9310    0.9225    0.6543   -0.2703    0.2350
       306 9592.1690 9592.9930 9592.4880    0.9205    0.9055    0.3404   -0.5964    0.2820
       307 9593.9220 9594.3560 9594.1560    0.8945    0.9486    0.6244   -0.3055    0.2300
       308 9594.4380 9595.0020 9594.7760    0.8684    1.0787    0.6614   -0.1920    0.0730
       309 9597.3650 9597.9990 9597.5860    0.9877    0.8896    0.6302   -0.2453    0.1720
       310 9598.4500 9599.3380 9598.8510    0.8435    1.0278    0.4312   -0.4592    0.2500
       311 9604.0390 9604.8600 9604.5670    1.0133    0.8315    0.6757   -0.2264    0.3340
       312 9604.8600 9605.6340 9605.1360    0.8315    0.9851    0.3133   -0.6355    0.3200
       313 9605.8470 9606.6040 9606.1570    1.0511    0.9565    0.5823   -0.3732    0.2530
       314 9607.7080 9608.6660 9607.8730    0.9049    0.9828    0.7257   -0.1917    0.0990
       315 9609.4920 9610.5440 9610.0340    1.0526    0.8646    0.5662   -0.4282    0.3040
       316 9617.6540 9618.8170 9618.0670    1.1094    0.9719    0.5397   -0.4041    0.2670
       317 9619.5660 9620.6000 9620.0080    0.9981    1.0403    0.5149   -0.3877    0.1970
       318 9620.6700 9621.7030 9621.1750    1.2017    1.0217    0.2555   -0.6571    0.3940
       319 9621.8450 9623.3700 9622.6670    0.8913    0.9866    0.4658   -0.4432    0.3090
       320 9624.0050 9624.8500 9624.4520    1.0209    0.9669    0.7295   -0.2493    0.1780
       321 9625.2850 9626.0340 9625.7230    0.9980    0.8603    0.7004   -0.1820    0.2110
       322 9626.0340 9626.9120 9626.3140    0.8603    0.9838    0.4633   -0.4780    0.3070
       323 9627.4540 9628.9010 9628.6580    1.0038    1.0479    0.7211   -0.2048    0.0870
       324 9635.3800 9636.7890 9636.0620    1.0063    0.9461    0.7191   -0.1641    0.0560
       325 9636.7890 9637.9440 9637.3890    0.9461    0.9822    0.3115   -0.5926    0.4620
       326 9639.8180 9640.4300 9640.1880    1.0069    0.8815    0.8181   -0.1921    0.3130
       327 9640.3070 9641.1620 9640.5840    0.8941    1.0383    0.7594   -0.2706    0.3280
       328 9642.7830 9643.3580 9643.1130    1.0917    1.0007    0.8942   -0.1122    0.0690
       329 9644.6150 9645.3660 9645.1880    1.0130    0.6835    0.6508   -0.4274    0.7670
       330 9645.2610 9645.8240 9645.5250    0.7204    0.9263    0.4257   -0.5258    0.3160
       331 9645.9980 9646.7870 9646.4370    0.9620    0.9903    0.5833   -0.3705    0.2650
       332 9648.3090 9648.9430 9648.5760    1.0711    1.0503    0.9049   -0.1817    0.4540
       333 9651.6400 9652.1820 9651.8740    1.0948    1.0079    0.8599   -0.1570    0.1200
       334 9652.4940 9653.2170 9652.8440    1.1194    1.0093    0.8114   -0.2313    0.2700
       335 9654.4000 9655.0090 9654.6220    1.0255    1.0164    0.7035   -0.2468    0.1340
       336 9657.0300 9657.6720 9657.3050    1.0474    0.9428    0.7811   -0.2220    0.2600
       337 9659.3980 9660.2060 9659.7070    0.9345    1.0341    0.7844   -0.1955    0.2240
       338 9660.4500 9661.4270 9660.8610    0.9855    0.9655    0.7501   -0.2687    0.3070
       339 9661.5400 9662.6670 9662.2960    0.9882    0.9661    0.3428   -0.6264    0.3120
       340 9662.8920 9663.4180 9663.2300    0.9750    1.0200    0.8951   -0.0930    0.1620
       341 9664.1680 9665.3300 9664.6180    1.0297    1.0700    0.6601   -0.3412    0.2930
       342 9666.7250 9667.6540 9667.1540    0.9996    1.0765    0.8938   -0.1687    0.4960
       343 9669.4960 9670.2010 9669.9550    1.0082    0.9764    0.6376   -0.3361    0.2770
       344 9670.2010 9670.8580 9670.5900    0.9764    0.9740    0.5229   -0.4225    0.2810
       345 9679.7010 9680.8380 9680.3500    0.8897    0.9911    0.3768   -0.5595    0.3040
       346 9691.4570 9692.5490 9691.8860    1.0143    1.0412    0.8373   -0.1055    0.2590
       347 9697.7310 9699.0420 9698.2090    1.0077    0.9839    0.8600   -0.1189    0.0670
       348 9699.7320 9700.4650 9700.1390    1.0152    0.9790    0.8850   -0.1054    0.3000
       349 9700.9580 9701.8460 9701.3990    1.0024    0.9389    0.5333   -0.4463    0.2680
       350 9707.9710 9709.2860 9708.8550    0.9756    0.9614    0.7835   -0.1985    0.3220
       351 9714.7810 9716.0910 9715.2780    1.0025    0.9731    0.5097   -0.4881    0.3140
       352 9722.3610 9723.6990 9723.1570    1.0734    0.9589    0.6750   -0.2964    0.2830
       353 9723.9100 9725.0380 9724.5840    1.0200    0.9987    0.7740   -0.2285    0.3690
       354 9730.0630 9731.2770 9730.6570    1.0100    0.9405    0.8134   -0.1542    0.3410
       355 9734.2810 9735.7180 9734.9900    0.9702    1.0416    0.5574   -0.4107    0.2730
       356 9735.7180 9737.4080 9736.6320    1.0416    1.0506    0.6555   -0.3769    1.4970
       357 9742.7490 9743.9090 9743.4640    0.9398    0.9568    0.3520   -0.5208    0.3250
       358 9748.8730 9749.8450 9749.3020    0.8417    0.9060    0.3655   -0.5247    0.2530
       359 9753.0360 9754.5810 9753.7930    0.9861    1.0412    0.6416   -0.3173    0.4270
       360 9757.2010 9758.6090 9757.6990    0.9160    0.9777    0.4058   -0.5462    0.3110
       361 9762.3480 9763.5680 9762.8410    1.0378    0.9550    0.4692   -0.3227    0.3080
       362 9781.8570 9783.2100 9782.3550    1.1423    1.0050    0.4868   -0.4230    0.2900
       363 9790.3980 9791.8950 9790.9920    1.0537    1.0780    0.5805   -0.3201    0.3090
       364 9792.5650 9793.7870 9793.3230    1.1020    0.9606    0.4982   -0.3942    0.2600
       365 9799.0560 9799.8310 9799.4190    0.9821    1.0280    0.7166   -0.2621    0.2150
       366 9801.2260 9801.9580 9801.6820    1.0221    0.9704    0.6637   -0.3748    0.2850
       367 9802.9540 9803.8090 9803.1960    1.0889    1.0572    0.8244   -0.1561    0.1250
       368 9824.5880 9826.3960 9825.5210    1.0567    0.9177    0.7671   -0.2146    0.2140
       369 9831.6040 9832.3940 9831.8800    1.1285    0.9708    0.8558   -0.1881    0.2020
       370 9848.4360 9849.4640 9848.8870    1.0662    0.9152    0.8172   -0.1790    0.2960
